#FORMAT	     : EMSA/MAS Spectral Data File
#VERSION     : 1.0
#TITLE       : B(0-0440eV)
#DATE        : 
#TIME        : 
#OWNER       : 
#NPOINTS     : 1024
#NCOLUMNS    : 1
#XUNITS      : eV
#YUNITS      : 
#DATATYPE    : XY
#XPERCHAN    : 5.000000e-001
#OFFSET      : -6.600000e+001
#SPECTRUM    : Spectral Data Starts Here
-6.600000e+001, 1.000000e-001
-6.550000e+001, 1.000000e-001
-6.500000e+001, 1.000000e-001
-6.450000e+001, 1.000000e-001
-6.400000e+001, 1.000000e-001
-6.350000e+001, 1.000000e-001
-6.300000e+001, 1.000000e-001
-6.250000e+001, 1.000000e-001
-6.200000e+001, 1.000000e-001
-6.150000e+001, 1.000000e-001
-6.100000e+001, 1.000000e-001
-6.050000e+001, 1.000000e-001
-6.000000e+001, 1.000000e-001
-5.950000e+001, 1.000000e-001
-5.900000e+001, 1.000000e-001
-5.850000e+001, 1.000000e-001
-5.800000e+001, 1.000000e-001
-5.750000e+001, 1.000000e-001
-5.700000e+001, 1.000000e-001
-5.650000e+001, 3.100000e+001
-5.600000e+001, 4.300000e+001
-5.550000e+001, 5.200000e+001
-5.500000e+001, 6.300000e+001
-5.450000e+001, 7.200000e+001
-5.400000e+001, 8.300000e+001
-5.350000e+001, 1.170000e+002
-5.300000e+001, 1.380000e+002
-5.250000e+001, 1.360000e+002
-5.200000e+001, 1.560000e+002
-5.150000e+001, 1.580000e+002
-5.100000e+001, 1.560000e+002
-5.050000e+001, 1.700000e+002
-5.000000e+001, 1.660000e+002
-4.950000e+001, 1.680000e+002
-4.900000e+001, 1.810000e+002
-4.850000e+001, 1.790000e+002
-4.800000e+001, 1.760000e+002
-4.750000e+001, 1.800000e+002
-4.700000e+001, 1.830000e+002
-4.650000e+001, 2.350000e+002
-4.600000e+001, 2.720000e+002
-4.550000e+001, 3.730000e+002
-4.500000e+001, 4.040000e+002
-4.450000e+001, 4.330000e+002
-4.400000e+001, 4.420000e+002
-4.350000e+001, 4.740000e+002
-4.300000e+001, 4.950000e+002
-4.250000e+001, 5.260000e+002
-4.200000e+001, 5.250000e+002
-4.150000e+001, 5.270000e+002
-4.100000e+001, 5.340000e+002
-4.050000e+001, 5.390000e+002
-4.000000e+001, 5.380000e+002
-3.950000e+001, 5.340000e+002
-3.900000e+001, 5.370000e+002
-3.850000e+001, 5.440000e+002
-3.800000e+001, 5.500000e+002
-3.750000e+001, 5.440000e+002
-3.700000e+001, 5.440000e+002
-3.650000e+001, 5.440000e+002
-3.600000e+001, 5.470000e+002
-3.550000e+001, 5.600000e+002
-3.500000e+001, 5.540000e+002
-3.450000e+001, 5.540000e+002
-3.400000e+001, 5.550000e+002
-3.350000e+001, 5.620000e+002
-3.300000e+001, 5.700000e+002
-3.250000e+001, 5.630000e+002
-3.200000e+001, 5.790000e+002
-3.150000e+001, 5.680000e+002
-3.100000e+001, 5.780000e+002
-3.050000e+001, 5.780000e+002
-3.000000e+001, 5.770000e+002
-2.950000e+001, 5.670000e+002
-2.900000e+001, 5.740000e+002
-2.850000e+001, 5.790000e+002
-2.800000e+001, 5.760000e+002
-2.750000e+001, 5.680000e+002
-2.700000e+001, 5.760000e+002
-2.650000e+001, 5.810000e+002
-2.600000e+001, 5.660000e+002
-2.550000e+001, 5.790000e+002
-2.500000e+001, 5.780000e+002
-2.450000e+001, 5.690000e+002
-2.400000e+001, 5.770000e+002
-2.350000e+001, 5.700000e+002
-2.300000e+001, 5.790000e+002
-2.250000e+001, 5.760000e+002
-2.200000e+001, 5.700000e+002
-2.150000e+001, 5.750000e+002
-2.100000e+001, 5.740000e+002
-2.050000e+001, 5.740000e+002
-2.000000e+001, 5.760000e+002
-1.950000e+001, 5.750000e+002
-1.900000e+001, 5.710000e+002
-1.850000e+001, 5.760000e+002
-1.800000e+001, 5.710000e+002
-1.750000e+001, 5.820000e+002
-1.700000e+001, 5.690000e+002
-1.650000e+001, 5.770000e+002
-1.600000e+001, 5.750000e+002
-1.550000e+001, 5.770000e+002
-1.500000e+001, 5.820000e+002
-1.450000e+001, 5.660000e+002
-1.400000e+001, 5.840000e+002
-1.350000e+001, 5.740000e+002
-1.300000e+001, 5.800000e+002
-1.250000e+001, 5.770000e+002
-1.200000e+001, 5.800000e+002
-1.150000e+001, 5.830000e+002
-1.100000e+001, 5.820000e+002
-1.050000e+001, 5.900000e+002
-1.000000e+001, 5.870000e+002
-9.500000e+000, 5.900000e+002
-9.000000e+000, 5.980000e+002
-8.500000e+000, 6.060000e+002
-8.000000e+000, 6.140000e+002
-7.500000e+000, 6.400000e+002
-7.000000e+000, 6.540000e+002
-6.500000e+000, 6.740000e+002
-6.000000e+000, 7.020000e+002
-5.500000e+000, 7.460000e+002
-5.000000e+000, 8.170000e+002
-4.500000e+000, 9.700000e+002
-4.000000e+000, 1.289000e+003
-3.500000e+000, 1.903000e+003
-3.000000e+000, 3.121000e+003
-2.500000e+000, 5.684000e+003
-2.000000e+000, 1.345800e+004
-1.500000e+000, 3.868200e+004
-1.000000e+000, 1.566640e+005
-5.000000e-001, 5.462500e+005
0.000000e+000, 8.592980e+005
5.000000e-001, 5.410090e+005
1.000000e+000, 1.741390e+005
1.500000e+000, 4.303900e+004
2.000000e+000, 1.563300e+004
2.500000e+000, 9.647000e+003
3.000000e+000, 7.819000e+003
3.500000e+000, 6.964000e+003
4.000000e+000, 6.500000e+003
4.500000e+000, 6.180000e+003
5.000000e+000, 5.951000e+003
5.500000e+000, 5.763000e+003
6.000000e+000, 5.622000e+003
6.500000e+000, 5.490000e+003
7.000000e+000, 5.383000e+003
7.500000e+000, 5.289000e+003
8.000000e+000, 5.199000e+003
8.500000e+000, 5.157000e+003
9.000000e+000, 5.118000e+003
9.500000e+000, 5.107000e+003
1.000000e+001, 5.098000e+003
1.050000e+001, 5.109000e+003
1.100000e+001, 5.137000e+003
1.150000e+001, 5.181000e+003
1.200000e+001, 5.238000e+003
1.250000e+001, 5.305000e+003
1.300000e+001, 5.391000e+003
1.350000e+001, 5.509000e+003
1.400000e+001, 5.650000e+003
1.450000e+001, 5.808000e+003
1.500000e+001, 5.978000e+003
1.550000e+001, 6.172000e+003
1.600000e+001, 6.398000e+003
1.650000e+001, 6.655000e+003
1.700000e+001, 6.943000e+003
1.750000e+001, 7.268000e+003
1.800000e+001, 7.639000e+003
1.850000e+001, 8.082000e+003
1.900000e+001, 8.610000e+003
1.950000e+001, 9.224010e+003
2.000000e+001, 9.897010e+003
2.050000e+001, 1.068800e+004
2.100000e+001, 1.157900e+004
2.150000e+001, 1.250500e+004
2.200000e+001, 1.341300e+004
2.250000e+001, 1.419400e+004
2.300000e+001, 1.479300e+004
2.350000e+001, 1.509400e+004
2.400000e+001, 1.507400e+004
2.450000e+001, 1.477900e+004
2.500000e+001, 1.422700e+004
2.550000e+001, 1.357900e+004
2.600000e+001, 1.286400e+004
2.650000e+001, 1.216400e+004
2.700000e+001, 1.142000e+004
2.750000e+001, 1.069000e+004
2.800000e+001, 1.002200e+004
2.850000e+001, 9.406000e+003
2.900000e+001, 8.828000e+003
2.950000e+001, 8.288000e+003
3.000000e+001, 7.812000e+003
3.050000e+001, 7.387000e+003
3.100000e+001, 6.991000e+003
3.150000e+001, 6.647000e+003
3.200000e+001, 6.351000e+003
3.250000e+001, 6.075000e+003
3.300000e+001, 5.833000e+003
3.350000e+001, 5.610000e+003
3.400000e+001, 5.434000e+003
3.450000e+001, 5.275000e+003
3.500000e+001, 5.118000e+003
3.550000e+001, 4.984000e+003
3.600000e+001, 4.867000e+003
3.650000e+001, 4.777000e+003
3.700000e+001, 4.696000e+003
3.750000e+001, 4.615000e+003
3.800000e+001, 4.556000e+003
3.850000e+001, 4.503000e+003
3.900000e+001, 4.472000e+003
3.950000e+001, 4.441000e+003
4.000000e+001, 4.415000e+003
4.050000e+001, 4.395000e+003
4.100000e+001, 4.385000e+003
4.150000e+001, 4.386000e+003
4.200000e+001, 4.384000e+003
4.250000e+001, 4.391000e+003
4.300000e+001, 4.405000e+003
4.350000e+001, 4.418000e+003
4.400000e+001, 4.441000e+003
4.450000e+001, 4.455000e+003
4.500000e+001, 4.472000e+003
4.550000e+001, 4.477000e+003
4.600000e+001, 4.481000e+003
4.650000e+001, 4.485000e+003
4.700000e+001, 4.483000e+003
4.750000e+001, 4.448000e+003
4.800000e+001, 4.423000e+003
4.850000e+001, 4.391000e+003
4.900000e+001, 4.350000e+003
4.950000e+001, 4.285000e+003
5.000000e+001, 4.224000e+003
5.050000e+001, 4.153000e+003
5.100000e+001, 4.083000e+003
5.150000e+001, 4.000000e+003
5.200000e+001, 3.929000e+003
5.250000e+001, 3.836000e+003
5.300000e+001, 3.761000e+003
5.350000e+001, 3.674000e+003
5.400000e+001, 3.595000e+003
5.450000e+001, 3.508000e+003
5.500000e+001, 3.429000e+003
5.550000e+001, 3.350000e+003
5.600000e+001, 3.285000e+003
5.650000e+001, 3.211000e+003
5.700000e+001, 3.140000e+003
5.750000e+001, 3.076000e+003
5.800000e+001, 3.010000e+003
5.850000e+001, 2.951000e+003
5.900000e+001, 2.908000e+003
5.950000e+001, 2.846000e+003
6.000000e+001, 2.798000e+003
6.050000e+001, 2.745000e+003
6.100000e+001, 2.698000e+003
6.150000e+001, 2.672000e+003
6.200000e+001, 2.619000e+003
6.250000e+001, 2.587000e+003
6.300000e+001, 2.551000e+003
6.350000e+001, 2.522000e+003
6.400000e+001, 2.484000e+003
6.450000e+001, 2.452000e+003
6.500000e+001, 2.434000e+003
6.550000e+001, 2.400000e+003
6.600000e+001, 2.375000e+003
6.650000e+001, 2.344000e+003
6.700000e+001, 2.338000e+003
6.750000e+001, 2.305000e+003
6.800000e+001, 2.286000e+003
6.850000e+001, 2.262000e+003
6.900000e+001, 2.240000e+003
6.950000e+001, 2.226000e+003
7.000000e+001, 2.198000e+003
7.050000e+001, 2.189000e+003
7.100000e+001, 2.160000e+003
7.150000e+001, 2.146000e+003
7.200000e+001, 2.123000e+003
7.250000e+001, 2.097000e+003
7.300000e+001, 2.077000e+003
7.350000e+001, 2.057000e+003
7.400000e+001, 2.039000e+003
7.450000e+001, 2.018000e+003
7.500000e+001, 1.993000e+003
7.550000e+001, 1.967000e+003
7.600000e+001, 1.941000e+003
7.650000e+001, 1.927000e+003
7.700000e+001, 1.908000e+003
7.750000e+001, 1.882000e+003
7.800000e+001, 1.858000e+003
7.850000e+001, 1.835000e+003
7.900000e+001, 1.813000e+003
7.950000e+001, 1.791000e+003
8.000000e+001, 1.773000e+003
8.050000e+001, 1.752000e+003
8.100000e+001, 1.733000e+003
8.150000e+001, 1.712000e+003
8.200000e+001, 1.696000e+003
8.250000e+001, 1.670000e+003
8.300000e+001, 1.658000e+003
8.350000e+001, 1.635000e+003
8.400000e+001, 1.617000e+003
8.450000e+001, 1.605000e+003
8.500000e+001, 1.578000e+003
8.550000e+001, 1.569000e+003
8.600000e+001, 1.553000e+003
8.650000e+001, 1.536000e+003
8.700000e+001, 1.529000e+003
8.750000e+001, 1.509000e+003
8.800000e+001, 1.493000e+003
8.850000e+001, 1.478000e+003
8.900000e+001, 1.470000e+003
8.950000e+001, 1.457000e+003
9.000000e+001, 1.441000e+003
9.050000e+001, 1.433000e+003
9.100000e+001, 1.407000e+003
9.150000e+001, 1.412000e+003
9.200000e+001, 1.395000e+003
9.250000e+001, 1.384000e+003
9.300000e+001, 1.371000e+003
9.350000e+001, 1.358000e+003
9.400000e+001, 1.352000e+003
9.450000e+001, 1.342000e+003
9.500000e+001, 1.321000e+003
9.550000e+001, 1.320000e+003
9.600000e+001, 1.310000e+003
9.650000e+001, 1.298000e+003
9.700000e+001, 1.284000e+003
9.750000e+001, 1.278000e+003
9.800000e+001, 1.270000e+003
9.850000e+001, 1.255000e+003
9.900000e+001, 1.253000e+003
9.950000e+001, 1.245000e+003
1.000000e+002, 1.233000e+003
1.005000e+002, 1.217000e+003
1.010000e+002, 1.213000e+003
1.015000e+002, 1.120100e+004
1.020000e+002, 1.445900e+004
1.025000e+002, 1.776900e+004
1.030000e+002, 2.085300e+004
1.035000e+002, 2.387600e+004
1.040000e+002, 2.589500e+004
1.045000e+002, 3.116600e+004
1.050000e+002, 3.498700e+004
1.055000e+002, 3.446900e+004
1.060000e+002, 3.797300e+004
1.065000e+002, 3.807800e+004
1.070000e+002, 3.735100e+004
1.075000e+002, 3.948800e+004
1.080000e+002, 3.919600e+004
1.085000e+002, 3.823400e+004
1.090000e+002, 4.018600e+004
1.095000e+002, 3.980700e+004
1.100000e+002, 3.889300e+004
1.105000e+002, 3.836800e+004
1.110000e+002, 4.003600e+004
1.115000e+002, 4.736700e+004
1.120000e+002, 6.041600e+004
1.125000e+002, 9.358200e+004
1.130000e+002, 9.870700e+004
1.135000e+002, 1.209140e+005
1.140000e+002, 1.254070e+005
1.145000e+002, 1.276810e+005
1.150000e+002, 1.279190e+005
1.155000e+002, 1.312300e+005
1.160000e+002, 1.308840e+005
1.165000e+002, 1.288890e+005
1.170000e+002, 1.293580e+005
1.175000e+002, 1.278080e+005
1.180000e+002, 1.254960e+005
1.185000e+002, 1.253600e+005
1.190000e+002, 1.240220e+005
1.195000e+002, 1.237970e+005
1.200000e+002, 1.228960e+005
1.205000e+002, 1.217240e+005
1.210000e+002, 1.197960e+005
1.215000e+002, 1.187550e+005
1.220000e+002, 1.173820e+005
1.225000e+002, 1.177970e+005
1.230000e+002, 1.168630e+005
1.235000e+002, 1.162920e+005
1.240000e+002, 1.147150e+005
1.245000e+002, 1.151850e+005
1.250000e+002, 1.131550e+005
1.255000e+002, 1.129060e+005
1.260000e+002, 1.123430e+005
1.265000e+002, 1.119240e+005
1.270000e+002, 1.100120e+005
1.275000e+002, 1.088140e+005
1.280000e+002, 1.081500e+005
1.285000e+002, 1.069250e+005
1.290000e+002, 1.060940e+005
1.295000e+002, 1.042550e+005
1.300000e+002, 1.034660e+005
1.305000e+002, 1.031670e+005
1.310000e+002, 1.012820e+005
1.315000e+002, 1.006390e+005
1.320000e+002, 9.979300e+004
1.325000e+002, 9.927210e+004
1.330000e+002, 9.797900e+004
1.335000e+002, 9.768900e+004
1.340000e+002, 9.713200e+004
1.345000e+002, 9.617400e+004
1.350000e+002, 9.514710e+004
1.355000e+002, 9.399100e+004
1.360000e+002, 9.297310e+004
1.365000e+002, 9.287500e+004
1.370000e+002, 9.140500e+004
1.375000e+002, 9.133010e+004
1.380000e+002, 8.993110e+004
1.385000e+002, 8.949200e+004
1.390000e+002, 8.844800e+004
1.395000e+002, 8.754300e+004
1.400000e+002, 8.723900e+004
1.405000e+002, 8.625610e+004
1.410000e+002, 8.501210e+004
1.415000e+002, 8.472300e+004
1.420000e+002, 8.385400e+004
1.425000e+002, 8.307010e+004
1.430000e+002, 8.283310e+004
1.435000e+002, 8.242300e+004
1.440000e+002, 8.158300e+004
1.445000e+002, 8.031900e+004
1.450000e+002, 8.009310e+004
1.455000e+002, 7.994700e+004
1.460000e+002, 7.913810e+004
1.465000e+002, 7.811110e+004
1.470000e+002, 7.809400e+004
1.475000e+002, 7.693100e+004
1.480000e+002, 7.600400e+004
1.485000e+002, 7.624400e+004
1.490000e+002, 7.604000e+004
1.495000e+002, 7.504810e+004
1.500000e+002, 7.334600e+004
1.505000e+002, 7.374210e+004
1.510000e+002, 7.304900e+004
1.515000e+002, 7.179700e+004
1.520000e+002, 7.151000e+004
1.525000e+002, 7.146800e+004
1.530000e+002, 7.091700e+004
1.535000e+002, 6.983000e+004
1.540000e+002, 6.993300e+004
1.545000e+002, 6.871810e+004
1.550000e+002, 6.850900e+004
1.555000e+002, 6.803000e+004
1.560000e+002, 6.750200e+004
1.565000e+002, 6.703510e+004
1.570000e+002, 6.639010e+004
1.575000e+002, 6.584500e+004
1.580000e+002, 6.579400e+004
1.585000e+002, 6.512400e+004
1.590000e+002, 6.460310e+004
1.595000e+002, 6.381300e+004
1.600000e+002, 6.356900e+004
1.605000e+002, 6.332200e+004
1.610000e+002, 6.289800e+004
1.615000e+002, 6.186300e+004
1.620000e+002, 6.190210e+004
1.625000e+002, 6.169200e+004
1.630000e+002, 6.109400e+004
1.635000e+002, 6.086500e+004
1.640000e+002, 6.017100e+004
1.645000e+002, 5.963210e+004
1.650000e+002, 5.945300e+004
1.655000e+002, 5.882200e+004
1.660000e+002, 5.872900e+004
1.665000e+002, 5.824000e+004
1.670000e+002, 5.755400e+004
1.675000e+002, 5.681200e+004
1.680000e+002, 5.673400e+004
1.685000e+002, 5.654200e+004
1.690000e+002, 5.617000e+004
1.695000e+002, 5.595600e+004
1.700000e+002, 5.492600e+004
1.705000e+002, 5.469700e+004
1.710000e+002, 5.461200e+004
1.715000e+002, 5.422010e+004
1.720000e+002, 5.383800e+004
1.725000e+002, 5.349300e+004
1.730000e+002, 5.288100e+004
1.735000e+002, 5.293900e+004
1.740000e+002, 5.261900e+004
1.745000e+002, 5.249200e+004
1.750000e+002, 5.168300e+004
1.755000e+002, 5.100300e+004
1.760000e+002, 5.104600e+004
1.765000e+002, 5.056700e+004
1.770000e+002, 5.049300e+004
1.775000e+002, 4.987500e+004
1.780000e+002, 4.978200e+004
1.785000e+002, 4.891700e+004
1.790000e+002, 4.918700e+004
1.795000e+002, 4.868800e+004
1.800000e+002, 4.828300e+004
1.805000e+002, 4.813500e+004
1.810000e+002, 4.797000e+004
1.815000e+002, 4.779400e+004
1.820000e+002, 4.707100e+004
1.825000e+002, 4.689800e+004
1.830000e+002, 4.670600e+004
1.835000e+002, 4.653100e+004
1.840000e+002, 4.647700e+004
1.845000e+002, 4.575700e+004
1.850000e+002, 4.600500e+004
1.855000e+002, 4.583700e+004
1.860000e+002, 4.631100e+004
1.865000e+002, 4.714400e+004
1.870000e+002, 4.893100e+004
1.875000e+002, 5.141600e+004
1.880000e+002, 5.552500e+004
1.885000e+002, 5.989700e+004
1.890000e+002, 6.381600e+004
1.895000e+002, 6.672200e+004
1.900000e+002, 6.812400e+004
1.905000e+002, 6.884800e+004
1.910000e+002, 6.842800e+004
1.915000e+002, 6.908100e+004
1.920000e+002, 6.981700e+004
1.925000e+002, 7.189900e+004
1.930000e+002, 7.394400e+004
1.935000e+002, 7.610600e+004
1.940000e+002, 7.765800e+004
1.945000e+002, 7.856900e+004
1.950000e+002, 7.921900e+004
1.955000e+002, 8.036910e+004
1.960000e+002, 8.041110e+004
1.965000e+002, 8.085200e+004
1.970000e+002, 8.117500e+004
1.975000e+002, 8.151300e+004
1.980000e+002, 8.211710e+004
1.985000e+002, 8.260900e+004
1.990000e+002, 8.409400e+004
1.995000e+002, 8.435400e+004
2.000000e+002, 8.386900e+004
2.005000e+002, 8.410600e+004
2.010000e+002, 8.415400e+004
2.015000e+002, 8.319900e+004
2.020000e+002, 8.235000e+004
2.025000e+002, 8.140600e+004
2.030000e+002, 7.961700e+004
2.035000e+002, 7.835410e+004
2.040000e+002, 7.668900e+004
2.045000e+002, 7.526000e+004
2.050000e+002, 7.337700e+004
2.055000e+002, 7.137810e+004
2.060000e+002, 6.966700e+004
2.065000e+002, 6.798800e+004
2.070000e+002, 6.582200e+004
2.075000e+002, 6.410700e+004
2.080000e+002, 6.318010e+004
2.085000e+002, 6.187100e+004
2.090000e+002, 6.144400e+004
2.095000e+002, 6.059300e+004
2.100000e+002, 6.030600e+004
2.105000e+002, 6.058100e+004
2.110000e+002, 5.983700e+004
2.115000e+002, 6.006900e+004
2.120000e+002, 6.053300e+004
2.125000e+002, 6.111700e+004
2.130000e+002, 6.150000e+004
2.135000e+002, 6.279200e+004
2.140000e+002, 6.302800e+004
2.145000e+002, 6.411100e+004
2.150000e+002, 6.401410e+004
2.155000e+002, 6.478700e+004
2.160000e+002, 6.567800e+004
2.165000e+002, 6.576400e+004
2.170000e+002, 6.634500e+004
2.175000e+002, 6.677200e+004
2.180000e+002, 6.663200e+004
2.185000e+002, 6.775600e+004
2.190000e+002, 6.759100e+004
2.195000e+002, 6.769900e+004
2.200000e+002, 6.813700e+004
2.205000e+002, 6.823400e+004
2.210000e+002, 6.808710e+004
2.215000e+002, 6.837600e+004
2.220000e+002, 6.804400e+004
2.225000e+002, 6.811400e+004
2.230000e+002, 6.771910e+004
2.235000e+002, 6.775500e+004
2.240000e+002, 6.739700e+004
2.245000e+002, 6.735800e+004
2.250000e+002, 6.694310e+004
2.255000e+002, 6.668400e+004
2.260000e+002, 6.655900e+004
2.265000e+002, 6.595700e+004
2.270000e+002, 6.508400e+004
2.275000e+002, 6.477800e+004
2.280000e+002, 6.387500e+004
2.285000e+002, 6.348500e+004
2.290000e+002, 6.341400e+004
2.295000e+002, 6.231600e+004
2.300000e+002, 6.250600e+004
2.305000e+002, 6.252000e+004
2.310000e+002, 6.155400e+004
2.315000e+002, 6.115400e+004
2.320000e+002, 6.147000e+004
2.325000e+002, 6.034500e+004
2.330000e+002, 6.011200e+004
2.335000e+002, 5.989600e+004
2.340000e+002, 5.929900e+004
2.345000e+002, 5.918800e+004
2.350000e+002, 5.910800e+004
2.355000e+002, 5.921500e+004
2.360000e+002, 5.858400e+004
2.365000e+002, 5.900310e+004
2.370000e+002, 5.861310e+004
2.375000e+002, 5.864710e+004
2.380000e+002, 5.819800e+004
2.385000e+002, 5.815700e+004
2.390000e+002, 5.785900e+004
2.395000e+002, 5.817100e+004
2.400000e+002, 5.805100e+004
2.405000e+002, 5.805500e+004
2.410000e+002, 5.804410e+004
2.415000e+002, 5.830100e+004
2.420000e+002, 5.780000e+004
2.425000e+002, 5.761700e+004
2.430000e+002, 5.803110e+004
2.435000e+002, 5.821500e+004
2.440000e+002, 5.713600e+004
2.445000e+002, 5.697000e+004
2.450000e+002, 5.771800e+004
2.455000e+002, 5.718000e+004
2.460000e+002, 5.703900e+004
2.465000e+002, 5.668300e+004
2.470000e+002, 5.609800e+004
2.475000e+002, 5.650100e+004
2.480000e+002, 5.615310e+004
2.485000e+002, 5.566700e+004
2.490000e+002, 5.582700e+004
2.495000e+002, 5.520600e+004
2.500000e+002, 5.479500e+004
2.505000e+002, 5.475200e+004
2.510000e+002, 5.464300e+004
2.515000e+002, 5.470710e+004
2.520000e+002, 5.481800e+004
2.525000e+002, 5.426900e+004
2.530000e+002, 5.356700e+004
2.535000e+002, 5.408300e+004
2.540000e+002, 5.341800e+004
2.545000e+002, 5.299500e+004
2.550000e+002, 5.295900e+004
2.555000e+002, 5.299900e+004
2.560000e+002, 5.241100e+004
2.565000e+002, 5.204000e+004
2.570000e+002, 5.225600e+004
2.575000e+002, 5.187200e+004
2.580000e+002, 5.231400e+004
2.585000e+002, 5.135000e+004
